# Profil de Te au temps 6.099999999999995e-13 
# simu : /Volumes/MERCURE/JOBS/tanh_10mic_Zeq10_B0/GNU/Te@y-c.set
# col 0 : abscisse (um)
# col 1 : Te (keV)
0.100000	1.000000
0.300000	1.000000
0.500000	1.000000
0.700000	1.000000
0.900000	1.000000
1.100000	1.000000
1.300000	1.000000
1.500000	1.000000
1.700000	1.000000
1.900000	1.000000
2.100000	1.000000
2.300000	1.000000
2.500000	1.000000
2.700000	1.000000
2.900000	1.000000
3.100000	1.000000
3.300000	1.000000
3.500000	1.000000
3.700000	1.000000
3.900000	1.000000
4.100000	1.000000
4.300000	1.000000
4.500000	1.000000
4.700000	1.000000
4.900000	1.000000
5.100000	1.000000
5.300000	1.000000
5.500000	1.000000
5.700000	1.000000
5.900000	1.000000
6.100000	1.000000
6.300000	1.000000
6.500000	1.000000
6.700000	1.000000
6.900000	1.000000
7.100000	1.000000
7.300000	1.000000
7.500000	1.000000
7.700000	1.000000
7.900000	1.000000
8.100000	1.000000
8.300000	1.000000
8.500000	1.000000
8.700000	1.000000
8.900000	1.000000
9.100000	1.000000
9.300000	1.000000
9.500000	1.000000
9.700000	1.000000
9.900000	1.000000
10.100000	1.000000
10.300000	1.000000
10.500000	1.000000
10.700000	1.000000
10.900000	1.000000
11.100000	0.999999
11.300000	0.999999
11.500000	0.999999
11.700000	0.999999
11.900000	0.999999
12.100000	0.999999
12.300000	0.999999
12.500000	0.999999
12.700000	0.999999
12.900000	0.999999
13.100000	0.999999
13.300000	0.999999
13.500000	0.999999
13.700000	0.999999
13.900000	0.999999
14.100000	0.999999
14.300000	0.999999
14.500000	0.999999
14.700000	0.999999
14.900000	0.999999
15.100000	0.999999
15.300000	0.999999
15.500000	0.999999
15.700000	0.999999
15.900000	0.999999
16.100000	0.999999
16.300000	0.999999
16.500000	0.999999
16.700000	0.999998
16.900000	0.999998
17.100000	0.999998
17.300000	0.999998
17.500000	0.999998
17.700000	0.999998
17.900000	0.999998
18.100000	0.999998
18.300000	0.999998
18.500000	0.999998
18.700000	0.999998
18.900000	0.999998
19.100000	0.999998
19.300000	0.999997
19.500000	0.999997
19.700000	0.999997
19.900000	0.999997
20.100000	0.999997
20.300000	0.999997
20.500000	0.999997
20.700000	0.999997
20.900000	0.999996
21.100000	0.999996
21.300000	0.999996
21.500000	0.999996
21.700000	0.999996
21.900000	0.999996
22.100000	0.999995
22.300000	0.999995
22.500000	0.999995
22.700000	0.999995
22.900000	0.999995
23.100000	0.999994
23.300000	0.999994
23.500000	0.999994
23.700000	0.999994
23.900000	0.999993
24.100000	0.999993
24.300000	0.999993
24.500000	0.999993
24.700000	0.999992
24.900000	0.999992
25.100000	0.999992
25.300000	0.999991
25.500000	0.999991
25.700000	0.999991
25.900000	0.999990
26.100000	0.999990
26.300000	0.999989
26.500000	0.999989
26.700000	0.999989
26.900000	0.999988
27.100000	0.999988
27.300000	0.999987
27.500000	0.999987
27.700000	0.999986
27.900000	0.999986
28.100000	0.999985
28.300000	0.999984
28.500000	0.999984
28.700000	0.999983
28.900000	0.999982
29.100000	0.999982
29.300000	0.999981
29.500000	0.999980
29.700000	0.999979
29.900000	0.999978
30.100000	0.999978
30.300000	0.999977
30.500000	0.999976
30.700000	0.999975
30.900000	0.999974
31.100000	0.999973
31.300000	0.999971
31.500000	0.999970
31.700000	0.999969
31.900000	0.999968
32.100000	0.999967
32.300000	0.999965
32.500000	0.999964
32.700000	0.999962
32.900000	0.999961
33.100000	0.999959
33.300000	0.999957
33.500000	0.999956
33.700000	0.999954
33.900000	0.999952
34.100000	0.999950
34.300000	0.999948
34.500000	0.999946
34.700000	0.999944
34.900000	0.999941
35.100000	0.999939
35.300000	0.999937
35.500000	0.999934
35.700000	0.999931
35.900000	0.999928
36.100000	0.999926
36.300000	0.999923
36.500000	0.999919
36.700000	0.999916
36.900000	0.999913
37.100000	0.999909
37.300000	0.999905
37.500000	0.999902
37.700000	0.999898
37.900000	0.999893
38.100000	0.999889
38.300000	0.999885
38.500000	0.999880
38.700000	0.999875
38.900000	0.999870
39.100000	0.999865
39.300000	0.999859
39.500000	0.999853
39.700000	0.999847
39.900000	0.999841
40.100000	0.999835
40.300000	0.999828
40.500000	0.999821
40.700000	0.999814
40.900000	0.999806
41.100000	0.999798
41.300000	0.999790
41.500000	0.999782
41.700000	0.999773
41.900000	0.999764
42.100000	0.999754
42.300000	0.999744
42.500000	0.999734
42.700000	0.999723
42.900000	0.999712
43.100000	0.999700
43.300000	0.999688
43.500000	0.999675
43.700000	0.999662
43.900000	0.999649
44.100000	0.999634
44.300000	0.999620
44.500000	0.999604
44.700000	0.999588
44.900000	0.999572
45.100000	0.999554
45.300000	0.999536
45.500000	0.999518
45.700000	0.999498
45.900000	0.999478
46.100000	0.999457
46.300000	0.999435
46.500000	0.999413
46.700000	0.999389
46.900000	0.999365
47.100000	0.999339
47.300000	0.999313
47.500000	0.999285
47.700000	0.999257
47.900000	0.999227
48.100000	0.999196
48.300000	0.999164
48.500000	0.999130
48.700000	0.999096
48.900000	0.999060
49.100000	0.999022
49.300000	0.998983
49.500000	0.998943
49.700000	0.998901
49.900000	0.998857
50.100000	0.998812
50.300000	0.998765
50.500000	0.998716
50.700000	0.998665
50.900000	0.998613
51.100000	0.998558
51.300000	0.998501
51.500000	0.998442
51.700000	0.998381
51.900000	0.998318
52.100000	0.998252
52.300000	0.998183
52.500000	0.998112
52.700000	0.998038
52.900000	0.997962
53.100000	0.997883
53.300000	0.997800
53.500000	0.997715
53.700000	0.997626
53.900000	0.997534
54.100000	0.997439
54.300000	0.997340
54.500000	0.997238
54.700000	0.997132
54.900000	0.997022
55.100000	0.996907
55.300000	0.996789
55.500000	0.996667
55.700000	0.996540
55.900000	0.996408
56.100000	0.996272
56.300000	0.996131
56.500000	0.995984
56.700000	0.995833
56.900000	0.995676
57.100000	0.995514
57.300000	0.995346
57.500000	0.995172
57.700000	0.994992
57.900000	0.994806
58.100000	0.994613
58.300000	0.994414
58.500000	0.994207
58.700000	0.993994
58.900000	0.993774
59.100000	0.993546
59.300000	0.993310
59.500000	0.993066
59.700000	0.992815
59.900000	0.992554
60.100000	0.992286
60.300000	0.992008
60.500000	0.991721
60.700000	0.991425
60.900000	0.991119
61.100000	0.990804
61.300000	0.990478
61.500000	0.990142
61.700000	0.989795
61.900000	0.989437
62.100000	0.989067
62.300000	0.988687
62.500000	0.988294
62.700000	0.987889
62.900000	0.987472
63.100000	0.987042
63.300000	0.986598
63.500000	0.986142
63.700000	0.985671
63.900000	0.985187
64.100000	0.984688
64.300000	0.984174
64.500000	0.983645
64.700000	0.983101
64.900000	0.982541
65.100000	0.981965
65.300000	0.981372
65.500000	0.980762
65.700000	0.980135
65.900000	0.979490
66.100000	0.978828
66.300000	0.978147
66.500000	0.977447
66.700000	0.976728
66.900000	0.975989
67.100000	0.975230
67.300000	0.974451
67.500000	0.973651
67.700000	0.972829
67.900000	0.971986
68.100000	0.971121
68.300000	0.970234
68.500000	0.969323
68.700000	0.968389
68.900000	0.967431
69.100000	0.966449
69.300000	0.965442
69.500000	0.964410
69.700000	0.963352
69.900000	0.962267
70.100000	0.961157
70.300000	0.960019
70.500000	0.958853
70.700000	0.957660
70.900000	0.956438
71.100000	0.955186
71.300000	0.953905
71.500000	0.952594
71.700000	0.951253
71.900000	0.949880
72.100000	0.948475
72.300000	0.947039
72.500000	0.945569
72.700000	0.944066
72.900000	0.942529
73.100000	0.940958
73.300000	0.939351
73.500000	0.937709
73.700000	0.936030
73.900000	0.934315
74.100000	0.932562
74.300000	0.930772
74.500000	0.928942
74.700000	0.927073
74.900000	0.925164
75.100000	0.923214
75.300000	0.921223
75.500000	0.919190
75.700000	0.917115
75.900000	0.914995
76.100000	0.912832
76.300000	0.910624
76.500000	0.908370
76.700000	0.906070
76.900000	0.903724
77.100000	0.901329
77.300000	0.898885
77.500000	0.896393
77.700000	0.893850
77.900000	0.891256
78.100000	0.888611
78.300000	0.885913
78.500000	0.883161
78.700000	0.880356
78.900000	0.877495
79.100000	0.874579
79.300000	0.871606
79.500000	0.868575
79.700000	0.865486
79.900000	0.862338
80.100000	0.859130
80.300000	0.855861
80.500000	0.852529
80.700000	0.849136
80.900000	0.845678
81.100000	0.842157
81.300000	0.838570
81.500000	0.834917
81.700000	0.831197
81.900000	0.827410
82.100000	0.823554
82.300000	0.819629
82.500000	0.815634
82.700000	0.811569
82.900000	0.807431
83.100000	0.803222
83.300000	0.798941
83.500000	0.794585
83.700000	0.790156
83.900000	0.785653
84.100000	0.781075
84.300000	0.776421
84.500000	0.771691
84.700000	0.766886
84.900000	0.762004
85.100000	0.757045
85.300000	0.752010
85.500000	0.746897
85.700000	0.741708
85.900000	0.736442
86.100000	0.731099
86.300000	0.725680
86.500000	0.720184
86.700000	0.714613
86.900000	0.708966
87.100000	0.703244
87.300000	0.697449
87.500000	0.691580
87.700000	0.685639
87.900000	0.679627
88.100000	0.673544
88.300000	0.667392
88.500000	0.661173
88.700000	0.654888
88.900000	0.648538
89.100000	0.642125
89.300000	0.635652
89.500000	0.629119
89.700000	0.622530
89.900000	0.615886
90.100000	0.609189
90.300000	0.602443
90.500000	0.595650
90.700000	0.588813
90.900000	0.581934
91.100000	0.575016
91.300000	0.568064
91.500000	0.561079
91.700000	0.554065
91.900000	0.547026
92.100000	0.539965
92.300000	0.532885
92.500000	0.525792
92.700000	0.518688
92.900000	0.511577
93.100000	0.504463
93.300000	0.497351
93.500000	0.490244
93.700000	0.483147
93.900000	0.476064
94.100000	0.468998
94.300000	0.461955
94.500000	0.454939
94.700000	0.447954
94.900000	0.441003
95.100000	0.434092
95.300000	0.427225
95.500000	0.420405
95.700000	0.413637
95.900000	0.406925
96.100000	0.400273
96.300000	0.393685
96.500000	0.387165
96.700000	0.380715
96.900000	0.374341
97.100000	0.368045
97.300000	0.361831
97.500000	0.355702
97.700000	0.349661
97.900000	0.343711
98.100000	0.337854
98.300000	0.332094
98.500000	0.326432
98.700000	0.320871
98.900000	0.315413
99.100000	0.310059
99.300000	0.304812
99.500000	0.299672
99.700000	0.294642
99.900000	0.289722
100.100000	0.284913
100.300000	0.280215
100.500000	0.275630
100.700000	0.271158
100.900000	0.266799
101.100000	0.262553
101.300000	0.258420
101.500000	0.254400
101.700000	0.250491
101.900000	0.246695
102.100000	0.243009
102.300000	0.239434
102.500000	0.235967
102.700000	0.232608
102.900000	0.229357
103.100000	0.226210
103.300000	0.223168
103.500000	0.220227
103.700000	0.217388
103.900000	0.214648
104.100000	0.212004
104.300000	0.209456
104.500000	0.207002
104.700000	0.204638
104.900000	0.202364
105.100000	0.200177
105.300000	0.198074
105.500000	0.196054
105.700000	0.194115
105.900000	0.192253
106.100000	0.190468
106.300000	0.188755
106.500000	0.187114
106.700000	0.185541
106.900000	0.184034
107.100000	0.182592
107.300000	0.181211
107.500000	0.179889
107.700000	0.178625
107.900000	0.177416
108.100000	0.176259
108.300000	0.175153
108.500000	0.174095
108.700000	0.173084
108.900000	0.172117
109.100000	0.171192
109.300000	0.170308
109.500000	0.169463
109.700000	0.168656
109.900000	0.167883
110.100000	0.167144
110.300000	0.166438
110.500000	0.165762
110.700000	0.165116
110.900000	0.164497
111.100000	0.163905
111.300000	0.163339
111.500000	0.162796
111.700000	0.162277
111.900000	0.161780
112.100000	0.161304
112.300000	0.160848
112.500000	0.160411
112.700000	0.159993
112.900000	0.159592
113.100000	0.159207
113.300000	0.158839
113.500000	0.158485
113.700000	0.158146
113.900000	0.157822
114.100000	0.157510
114.300000	0.157211
114.500000	0.156924
114.700000	0.156649
114.900000	0.156385
115.100000	0.156132
115.300000	0.155889
115.500000	0.155656
115.700000	0.155432
115.900000	0.155217
116.100000	0.155011
116.300000	0.154812
116.500000	0.154622
116.700000	0.154440
116.900000	0.154265
117.100000	0.154096
117.300000	0.153935
117.500000	0.153780
117.700000	0.153631
117.900000	0.153487
118.100000	0.153350
118.300000	0.153218
118.500000	0.153091
118.700000	0.152970
118.900000	0.152853
119.100000	0.152740
119.300000	0.152633
119.500000	0.152529
119.700000	0.152430
119.900000	0.152334
120.100000	0.152242
120.300000	0.152154
120.500000	0.152069
120.700000	0.151988
120.900000	0.151910
121.100000	0.151835
121.300000	0.151763
121.500000	0.151693
121.700000	0.151627
121.900000	0.151563
122.100000	0.151502
122.300000	0.151443
122.500000	0.151386
122.700000	0.151331
122.900000	0.151279
123.100000	0.151229
123.300000	0.151181
123.500000	0.151134
123.700000	0.151090
123.900000	0.151047
124.100000	0.151006
124.300000	0.150966
124.500000	0.150929
124.700000	0.150892
124.900000	0.150857
125.100000	0.150823
125.300000	0.150791
125.500000	0.150760
125.700000	0.150730
125.900000	0.150702
126.100000	0.150674
126.300000	0.150648
126.500000	0.150622
126.700000	0.150598
126.900000	0.150574
127.100000	0.150552
127.300000	0.150530
127.500000	0.150509
127.700000	0.150489
127.900000	0.150470
128.100000	0.150452
128.300000	0.150434
128.500000	0.150417
128.700000	0.150401
128.900000	0.150385
129.100000	0.150370
129.300000	0.150355
129.500000	0.150341
129.700000	0.150328
129.900000	0.150315
130.100000	0.150303
130.300000	0.150291
130.500000	0.150279
130.700000	0.150268
130.900000	0.150258
131.100000	0.150248
131.300000	0.150238
131.500000	0.150229
131.700000	0.150220
131.900000	0.150211
132.100000	0.150203
132.300000	0.150195
132.500000	0.150187
132.700000	0.150180
132.900000	0.150173
133.100000	0.150166
133.300000	0.150160
133.500000	0.150153
133.700000	0.150147
133.900000	0.150142
134.100000	0.150136
134.300000	0.150131
134.500000	0.150126
134.700000	0.150121
134.900000	0.150116
135.100000	0.150112
135.300000	0.150107
135.500000	0.150103
135.700000	0.150099
135.900000	0.150095
136.100000	0.150092
136.300000	0.150088
136.500000	0.150085
136.700000	0.150082
136.900000	0.150079
137.100000	0.150076
137.300000	0.150073
137.500000	0.150070
137.700000	0.150068
137.900000	0.150065
138.100000	0.150063
138.300000	0.150061
138.500000	0.150059
138.700000	0.150057
138.900000	0.150056
139.100000	0.150054
139.300000	0.150053
139.500000	0.150052
139.700000	0.150051
139.900000	0.150051
